
CLAM2 Development Software Ver.05:   CLAM2 Development by PES using Synchrotron Light: EDC
Friday, December 16, 2011
Messured: 4:59:47 AM - 5:21:39 AM


Parameter Setting
Fix Photon Energy: 600.000000 eV
1638.4 eV (XPS): CAE=100
Kinetic Energy Scan:   50.0000 - 75.0000   eV 
 Kinetic Energy Step:  0.2000   eV 
 1200 lines/mm 
 Ch4-Speed:  High Speed Mode 
 Sampling: 1
Number of scan : 10*

Energy (eV)	CPS	Ie (mA)	Ip (A)	CPS/Ip	Avg CPS	Avg CPS/Ip	


Scan : 	1

50.000000	2037.000000	68.815000	2.486864E-10	8.191039E+12	2037.000000	8.191039E+12
50.200000	1998.000000	68.815000	2.487859E-10	8.031002E+12	1998.000000	8.031002E+12
50.400000	2030.000000	68.811000	2.484555E-10	8.170477E+12	2030.000000	8.170477E+12
50.600000	1905.000000	68.811000	2.486118E-10	7.662549E+12	1905.000000	7.662549E+12
50.800000	2027.000000	68.808000	2.486829E-10	8.150942E+12	2027.000000	8.150942E+12
51.000000	1948.000000	68.808000	2.480078E-10	7.854592E+12	1948.000000	7.854592E+12
51.200000	1979.000000	68.805000	2.492904E-10	7.938533E+12	1979.000000	7.938533E+12
51.400000	1934.000000	68.805000	2.487823E-10	7.773865E+12	1934.000000	7.773865E+12
51.600000	1950.000000	68.802000	2.489564E-10	7.832697E+12	1950.000000	7.832697E+12
51.800000	1881.000000	68.802000	2.480576E-10	7.582916E+12	1881.000000	7.582916E+12
52.000000	2015.000000	68.802000	2.483169E-10	8.114631E+12	2015.000000	8.114631E+12
52.200000	1937.000000	68.800000	2.482210E-10	7.803530E+12	1937.000000	7.803530E+12
52.400000	1944.000000	68.800000	2.482174E-10	7.831844E+12	1944.000000	7.831844E+12
52.600000	1994.000000	68.798000	2.491056E-10	8.004637E+12	1994.000000	8.004637E+12
52.800000	1890.000000	68.798000	2.471374E-10	7.647568E+12	1890.000000	7.647568E+12
53.000000	1963.000000	68.794000	2.482068E-10	7.908728E+12	1963.000000	7.908728E+12
53.200000	1924.000000	68.794000	2.480576E-10	7.756263E+12	1924.000000	7.756263E+12
53.400000	1886.000000	68.791000	2.490772E-10	7.571950E+12	1886.000000	7.571950E+12
53.600000	1927.000000	68.791000	2.487965E-10	7.745286E+12	1927.000000	7.745286E+12
53.800000	1862.000000	68.788000	2.487859E-10	7.484347E+12	1862.000000	7.484347E+12
54.000000	1876.000000	68.788000	2.485443E-10	7.547950E+12	1876.000000	7.547950E+12
54.200000	1815.000000	68.788000	2.489209E-10	7.291473E+12	1815.000000	7.291473E+12
54.400000	1845.000000	68.784000	2.488250E-10	7.414850E+12	1845.000000	7.414850E+12
54.600000	1822.000000	68.784000	2.488427E-10	7.321895E+12	1822.000000	7.321895E+12
54.800000	1875.000000	68.782000	2.481713E-10	7.555265E+12	1875.000000	7.555265E+12
55.000000	1818.000000	68.782000	2.482885E-10	7.322127E+12	1818.000000	7.322127E+12
55.200000	1762.000000	68.779000	2.482672E-10	7.097192E+12	1762.000000	7.097192E+12
55.400000	1912.000000	68.779000	2.483702E-10	7.698186E+12	1912.000000	7.698186E+12
55.600000	1811.000000	68.775000	2.489919E-10	7.273329E+12	1811.000000	7.273329E+12
55.800000	1821.000000	68.775000	2.480043E-10	7.342615E+12	1821.000000	7.342615E+12
56.000000	1763.000000	68.772000	2.482494E-10	7.101729E+12	1763.000000	7.101729E+12
56.200000	1807.000000	68.772000	2.491163E-10	7.253640E+12	1807.000000	7.253640E+12
56.400000	1786.000000	68.772000	2.487539E-10	7.179787E+12	1786.000000	7.179787E+12
56.600000	1781.000000	68.769000	2.488783E-10	7.156108E+12	1781.000000	7.156108E+12
56.800000	1748.000000	68.769000	2.482849E-10	7.040299E+12	1748.000000	7.040299E+12
57.000000	1779.000000	68.769000	2.491376E-10	7.140632E+12	1779.000000	7.140632E+12
57.200000	1825.000000	68.765000	2.489209E-10	7.331646E+12	1825.000000	7.331646E+12
57.400000	1786.000000	68.765000	2.481535E-10	7.197158E+12	1786.000000	7.197158E+12
57.600000	1691.000000	68.763000	2.481286E-10	6.815014E+12	1691.000000	6.815014E+12
57.800000	1726.000000	68.763000	2.481571E-10	6.955271E+12	1726.000000	6.955271E+12
58.000000	1701.000000	68.760000	2.492513E-10	6.824438E+12	1701.000000	6.824438E+12
58.200000	1680.000000	68.760000	2.491980E-10	6.741627E+12	1680.000000	6.741627E+12
58.400000	1816.000000	68.760000	2.479190E-10	7.324973E+12	1816.000000	7.324973E+12
58.600000	1667.000000	68.758000	2.490061E-10	6.694615E+12	1667.000000	6.694615E+12
58.800000	1687.000000	68.758000	2.487504E-10	6.781899E+12	1687.000000	6.781899E+12
59.000000	1746.000000	68.755000	2.486615E-10	7.021594E+12	1746.000000	7.021594E+12
59.200000	1726.000000	68.755000	2.484200E-10	6.947911E+12	1726.000000	6.947911E+12
59.400000	1749.000000	68.753000	2.479190E-10	7.054724E+12	1749.000000	7.054724E+12
59.600000	1807.000000	68.753000	2.488498E-10	7.261408E+12	1807.000000	7.261408E+12
59.800000	1813.000000	68.750000	2.486402E-10	7.291661E+12	1813.000000	7.291661E+12
60.000000	1779.000000	68.750000	2.479474E-10	7.174909E+12	1779.000000	7.174909E+12
60.200000	1784.000000	68.747000	2.480505E-10	7.192084E+12	1784.000000	7.192084E+12
60.400000	1783.000000	68.747000	2.480576E-10	7.187847E+12	1783.000000	7.187847E+12
60.600000	1844.000000	68.747000	2.482849E-10	7.426952E+12	1844.000000	7.426952E+12
60.800000	1812.000000	68.744000	2.482849E-10	7.298068E+12	1812.000000	7.298068E+12
61.000000	1930.000000	68.744000	2.484022E-10	7.769657E+12	1930.000000	7.769657E+12
61.200000	1816.000000	68.741000	2.480718E-10	7.320461E+12	1816.000000	7.320461E+12
61.400000	1877.000000	68.741000	2.482032E-10	7.562352E+12	1877.000000	7.562352E+12
61.600000	1901.000000	68.738000	2.480860E-10	7.662665E+12	1901.000000	7.662665E+12
61.800000	1976.000000	68.738000	2.487042E-10	7.945181E+12	1976.000000	7.945181E+12
62.000000	1917.000000	68.735000	2.486047E-10	7.711037E+12	1917.000000	7.711037E+12
62.200000	1964.000000	68.735000	2.485088E-10	7.903141E+12	1964.000000	7.903141E+12
62.400000	1979.000000	68.732000	2.486935E-10	7.957586E+12	1979.000000	7.957586E+12
62.600000	1971.000000	68.732000	2.487539E-10	7.923494E+12	1971.000000	7.923494E+12
62.800000	1944.000000	68.732000	2.479901E-10	7.839023E+12	1944.000000	7.839023E+12
63.000000	1910.000000	68.730000	2.485656E-10	7.684088E+12	1910.000000	7.684088E+12
63.200000	1843.000000	68.730000	2.487468E-10	7.409141E+12	1843.000000	7.409141E+12
63.400000	1847.000000	68.727000	2.487042E-10	7.426493E+12	1847.000000	7.426493E+12
63.600000	1797.000000	68.727000	2.486935E-10	7.225762E+12	1797.000000	7.225762E+12
63.800000	1711.000000	68.724000	2.481322E-10	6.895518E+12	1711.000000	6.895518E+12
64.000000	1704.000000	68.724000	2.479652E-10	6.871932E+12	1704.000000	6.871932E+12
64.200000	1602.000000	68.722000	2.481038E-10	6.456975E+12	1602.000000	6.456975E+12
64.400000	1658.000000	68.722000	2.481890E-10	6.680393E+12	1658.000000	6.680393E+12
64.600000	1564.000000	68.719000	2.480895E-10	6.304177E+12	1564.000000	6.304177E+12
64.800000	1561.000000	68.719000	2.479581E-10	6.295418E+12	1561.000000	6.295418E+12
65.000000	1546.000000	68.719000	2.481926E-10	6.229033E+12	1546.000000	6.229033E+12
65.200000	1464.000000	68.716000	2.484484E-10	5.892572E+12	1464.000000	5.892572E+12
65.400000	1475.000000	68.716000	2.482281E-10	5.942115E+12	1475.000000	5.942115E+12
65.600000	1469.000000	68.713000	2.483596E-10	5.914811E+12	1469.000000	5.914811E+12
65.800000	1467.000000	68.713000	2.483382E-10	5.907267E+12	1467.000000	5.907267E+12
66.000000	1484.000000	68.710000	2.480860E-10	5.981797E+12	1484.000000	5.981797E+12
66.200000	1368.000000	68.710000	2.476845E-10	5.523155E+12	1368.000000	5.523155E+12
66.400000	1433.000000	68.710000	2.480967E-10	5.775974E+12	1433.000000	5.775974E+12
66.600000	1468.000000	68.708000	2.480789E-10	5.917472E+12	1468.000000	5.917472E+12
66.800000	1433.000000	68.705000	2.479581E-10	5.779202E+12	1433.000000	5.779202E+12
67.000000	1512.000000	68.705000	2.482601E-10	6.090387E+12	1512.000000	6.090387E+12
67.200000	1447.000000	68.705000	2.480576E-10	5.833323E+12	1447.000000	5.833323E+12
67.400000	1448.000000	68.702000	2.480860E-10	5.836686E+12	1448.000000	5.836686E+12
67.600000	1368.000000	68.702000	2.480043E-10	5.516033E+12	1368.000000	5.516033E+12
67.800000	1422.000000	68.699000	2.482174E-10	5.728849E+12	1422.000000	5.728849E+12
68.000000	1385.000000	68.699000	2.479581E-10	5.585621E+12	1385.000000	5.585621E+12
68.200000	1420.000000	68.696000	2.481890E-10	5.721446E+12	1420.000000	5.721446E+12
68.400000	1418.000000	68.696000	2.480576E-10	5.716414E+12	1418.000000	5.716414E+12
68.600000	1379.000000	68.694000	2.482565E-10	5.554739E+12	1379.000000	5.554739E+12
68.800000	1438.000000	68.694000	2.482352E-10	5.792893E+12	1438.000000	5.792893E+12
69.000000	1410.000000	68.694000	2.479048E-10	5.687667E+12	1410.000000	5.687667E+12
69.200000	1324.000000	68.691000	2.479368E-10	5.340071E+12	1324.000000	5.340071E+12
69.400000	1430.000000	68.691000	2.481251E-10	5.763222E+12	1430.000000	5.763222E+12
69.600000	1400.000000	68.689000	2.480895E-10	5.643125E+12	1400.000000	5.643125E+12
69.800000	1315.000000	68.689000	2.478480E-10	5.305671E+12	1315.000000	5.305671E+12
70.000000	1387.000000	68.686000	2.481002E-10	5.590483E+12	1387.000000	5.590483E+12
70.200000	1426.000000	68.686000	2.479155E-10	5.751960E+12	1426.000000	5.751960E+12
70.400000	1396.000000	68.683000	2.476312E-10	5.637416E+12	1396.000000	5.637416E+12
70.600000	1378.000000	68.683000	2.477734E-10	5.561533E+12	1378.000000	5.561533E+12
70.800000	1415.000000	68.680000	2.477094E-10	5.712339E+12	1415.000000	5.712339E+12
71.000000	1338.000000	68.680000	2.477591E-10	5.400407E+12	1338.000000	5.400407E+12
71.200000	1305.000000	68.680000	2.479474E-10	5.263213E+12	1305.000000	5.263213E+12
71.400000	1377.000000	68.677000	2.480647E-10	5.550971E+12	1377.000000	5.550971E+12
71.600000	1401.000000	68.677000	2.478018E-10	5.653712E+12	1401.000000	5.653712E+12
71.800000	1375.000000	68.674000	2.479048E-10	5.546484E+12	1375.000000	5.546484E+12
72.000000	1355.000000	68.674000	2.478515E-10	5.466983E+12	1355.000000	5.466983E+12
72.200000	1353.000000	68.671000	2.477165E-10	5.461889E+12	1353.000000	5.461889E+12
72.400000	1366.000000	68.671000	2.479155E-10	5.509942E+12	1366.000000	5.509942E+12
72.600000	1343.000000	68.669000	2.479119E-10	5.417247E+12	1343.000000	5.417247E+12
72.800000	1349.000000	68.669000	2.476241E-10	5.447773E+12	1349.000000	5.447773E+12
73.000000	1387.000000	68.666000	2.480576E-10	5.591443E+12	1387.000000	5.591443E+12
73.200000	1383.000000	68.666000	2.475531E-10	5.586680E+12	1383.000000	5.586680E+12
73.400000	1350.000000	68.666000	2.474181E-10	5.456351E+12	1350.000000	5.456351E+12
73.600000	1309.000000	68.663000	2.472476E-10	5.294288E+12	1309.000000	5.294288E+12
73.800000	1344.000000	68.663000	2.474749E-10	5.430854E+12	1344.000000	5.430854E+12
74.000000	1409.000000	68.661000	2.471943E-10	5.699970E+12	1409.000000	5.699970E+12
74.200000	1368.000000	68.661000	2.481961E-10	5.511771E+12	1368.000000	5.511771E+12
74.400000	1271.000000	68.658000	2.477094E-10	5.131012E+12	1271.000000	5.131012E+12
74.600000	1334.000000	68.658000	2.474181E-10	5.391683E+12	1334.000000	5.391683E+12
74.800000	1339.000000	68.655000	2.477201E-10	5.405294E+12	1339.000000	5.405294E+12
75.000000	1363.000000	68.655000	2.474714E-10	5.507707E+12	1363.000000	5.507707E+12

Scan : 	2

50.000000	2070.000000	68.646000	2.480682E-10	8.344479E+12	2053.500000	8.267759E+12
50.200000	1989.000000	68.646000	2.474394E-10	8.038332E+12	1993.500000	8.034667E+12
50.400000	1936.000000	68.643000	2.475993E-10	7.819085E+12	1983.000000	7.994781E+12
50.600000	1987.000000	68.643000	2.477805E-10	8.019194E+12	1946.000000	7.840872E+12
50.800000	1951.000000	68.640000	2.478231E-10	7.872551E+12	1989.000000	8.011747E+12
51.000000	1958.000000	68.640000	2.480185E-10	7.894572E+12	1953.000000	7.874582E+12
51.200000	1931.000000	68.640000	2.478124E-10	7.792185E+12	1955.000000	7.865359E+12
51.400000	1978.000000	68.636000	2.476988E-10	7.985505E+12	1956.000000	7.879685E+12
51.600000	1950.000000	68.636000	2.474536E-10	7.880265E+12	1950.000000	7.856481E+12
51.800000	1909.000000	68.633000	2.471126E-10	7.725223E+12	1895.000000	7.654070E+12
52.000000	2029.000000	68.633000	2.481961E-10	8.174987E+12	2022.000000	8.144809E+12
52.200000	1936.000000	68.630000	2.474749E-10	7.823016E+12	1936.500000	7.813273E+12
52.400000	2011.000000	68.630000	2.474252E-10	8.127709E+12	1977.500000	7.979777E+12
52.600000	1889.000000	68.627000	2.475531E-10	7.630686E+12	1941.500000	7.817662E+12
52.800000	1892.000000	68.627000	2.473683E-10	7.648514E+12	1891.000000	7.648041E+12
53.000000	1907.000000	68.624000	2.470415E-10	7.719351E+12	1935.000000	7.814039E+12
53.200000	1921.000000	68.624000	2.482281E-10	7.738850E+12	1922.500000	7.747556E+12
53.400000	1863.000000	68.624000	2.480753E-10	7.509817E+12	1874.500000	7.540883E+12
53.600000	1856.000000	68.621000	2.469918E-10	7.514420E+12	1891.500000	7.629853E+12
53.800000	1844.000000	68.621000	2.474785E-10	7.451152E+12	1853.000000	7.467750E+12
54.000000	1829.000000	68.618000	2.479474E-10	7.376565E+12	1852.500000	7.462257E+12
54.200000	1871.000000	68.618000	2.481748E-10	7.539041E+12	1843.000000	7.415257E+12
54.400000	1820.000000	68.614000	2.480327E-10	7.337742E+12	1832.500000	7.376296E+12
54.600000	1778.000000	68.614000	2.481855E-10	7.163996E+12	1800.000000	7.242945E+12
54.800000	1842.000000	68.611000	2.472653E-10	7.449488E+12	1858.500000	7.502377E+12
55.000000	1793.000000	68.611000	2.473648E-10	7.248404E+12	1805.500000	7.285266E+12
55.200000	1732.000000	68.609000	2.466187E-10	7.022987E+12	1747.000000	7.060090E+12
55.400000	1808.000000	68.609000	2.481286E-10	7.286544E+12	1860.000000	7.492365E+12
55.600000	1757.000000	68.609000	2.472902E-10	7.105013E+12	1784.000000	7.189171E+12
55.800000	1789.000000	68.606000	2.473115E-10	7.233792E+12	1805.000000	7.288203E+12
56.000000	1800.000000	68.606000	2.473328E-10	7.277644E+12	1781.500000	7.189686E+12
56.200000	1809.000000	68.604000	2.474607E-10	7.310252E+12	1808.000000	7.281946E+12
56.400000	1770.000000	68.604000	2.479368E-10	7.138916E+12	1778.000000	7.159351E+12
56.600000	1835.000000	68.601000	2.478302E-10	7.404263E+12	1808.000000	7.280186E+12
56.800000	1786.000000	68.601000	2.479261E-10	7.203760E+12	1767.000000	7.122029E+12
57.000000	1784.000000	68.598000	2.474465E-10	7.209639E+12	1781.500000	7.175136E+12
57.200000	1759.000000	68.598000	2.469100E-10	7.124053E+12	1792.000000	7.227850E+12
57.400000	1805.000000	68.598000	2.477840E-10	7.284570E+12	1795.500000	7.240864E+12
57.600000	1750.000000	68.595000	2.477201E-10	7.064425E+12	1720.500000	6.939720E+12
57.800000	1738.000000	68.595000	2.476455E-10	7.018096E+12	1732.000000	6.986684E+12
58.000000	1723.000000	68.595000	2.477272E-10	6.955231E+12	1712.000000	6.889835E+12
58.200000	1798.000000	68.592000	2.476881E-10	7.259130E+12	1739.000000	7.000378E+12
58.400000	1751.000000	68.592000	2.471090E-10	7.085942E+12	1783.500000	7.205457E+12
58.600000	1766.000000	68.589000	2.472120E-10	7.143666E+12	1716.500000	6.919141E+12
58.800000	1686.000000	68.589000	2.472156E-10	6.819958E+12	1686.500000	6.800928E+12
59.000000	1747.000000	68.587000	2.476526E-10	7.054236E+12	1746.500000	7.037915E+12
59.200000	1785.000000	68.587000	2.476028E-10	7.209127E+12	1755.500000	7.078519E+12
59.400000	1730.000000	68.584000	2.471801E-10	6.998945E+12	1739.500000	7.026834E+12
59.600000	1769.000000	68.584000	2.471374E-10	7.157962E+12	1788.000000	7.209685E+12
59.800000	1738.000000	68.584000	2.470202E-10	7.035862E+12	1775.500000	7.163761E+12
60.000000	1823.000000	68.581000	2.471197E-10	7.376992E+12	1801.000000	7.275950E+12
60.200000	1777.000000	68.581000	2.471765E-10	7.189195E+12	1780.500000	7.190639E+12
60.400000	1844.000000	68.578000	2.475211E-10	7.449870E+12	1813.500000	7.318858E+12
60.600000	1837.000000	68.578000	2.474643E-10	7.423293E+12	1840.500000	7.425122E+12
60.800000	1877.000000	68.574000	2.479297E-10	7.570694E+12	1844.500000	7.434381E+12
61.000000	1934.000000	68.574000	2.467679E-10	7.837324E+12	1932.000000	7.803491E+12
61.200000	1906.000000	68.571000	2.470912E-10	7.713751E+12	1861.000000	7.517106E+12
61.400000	1883.000000	68.571000	2.473541E-10	7.612568E+12	1880.000000	7.587460E+12
61.600000	1978.000000	68.568000	2.474927E-10	7.992155E+12	1939.500000	7.827410E+12
61.800000	1908.000000	68.568000	2.474430E-10	7.710867E+12	1942.000000	7.828024E+12
62.000000	1951.000000	68.568000	2.473861E-10	7.886458E+12	1934.000000	7.798747E+12
62.200000	1951.000000	68.565000	2.475211E-10	7.882156E+12	1957.500000	7.892648E+12
62.400000	1956.000000	68.565000	2.476739E-10	7.897481E+12	1967.500000	7.927534E+12
62.600000	2014.000000	68.562000	2.472973E-10	8.144044E+12	1992.500000	8.033769E+12
62.800000	1952.000000	68.562000	2.470095E-10	7.902530E+12	1948.000000	7.870776E+12
63.000000	1897.000000	68.559000	2.471161E-10	7.676554E+12	1903.500000	7.680321E+12
63.200000	1876.000000	68.559000	2.467395E-10	7.603160E+12	1859.500000	7.506150E+12
63.400000	1929.000000	68.556000	2.475815E-10	7.791374E+12	1888.000000	7.608933E+12
63.600000	1833.000000	68.556000	2.474820E-10	7.406599E+12	1815.000000	7.316181E+12
63.800000	1772.000000	68.554000	2.474003E-10	7.162481E+12	1741.500000	7.029000E+12
64.000000	1728.000000	68.554000	2.472227E-10	6.989649E+12	1716.000000	6.930791E+12
64.200000	1697.000000	68.554000	2.470628E-10	6.868699E+12	1649.500000	6.662837E+12
64.400000	1586.000000	68.550000	2.473151E-10	6.412872E+12	1622.000000	6.546632E+12
64.600000	1610.000000	68.550000	2.472582E-10	6.511412E+12	1587.000000	6.407794E+12
64.800000	1604.000000	68.547000	2.472476E-10	6.487424E+12	1582.500000	6.391421E+12
65.000000	1582.000000	68.547000	2.470664E-10	6.403137E+12	1564.000000	6.316085E+12
65.200000	1495.000000	68.547000	2.472831E-10	6.045702E+12	1479.500000	5.969137E+12
65.400000	1524.000000	68.544000	2.474110E-10	6.159791E+12	1499.500000	6.050953E+12
65.600000	1523.000000	68.541000	2.473008E-10	6.158492E+12	1496.000000	6.036651E+12
65.800000	1404.000000	68.541000	2.473328E-10	5.676562E+12	1435.500000	5.791914E+12
66.000000	1463.000000	68.541000	2.473648E-10	5.914342E+12	1473.500000	5.948069E+12
66.200000	1406.000000	68.538000	2.473470E-10	5.684322E+12	1387.000000	5.603739E+12
66.400000	1412.000000	68.538000	2.470912E-10	5.714489E+12	1422.500000	5.745231E+12
66.600000	1446.000000	68.535000	2.471161E-10	5.851501E+12	1457.000000	5.884486E+12
66.800000	1415.000000	68.535000	2.471232E-10	5.725889E+12	1424.000000	5.752546E+12
67.000000	1422.000000	68.533000	2.471801E-10	5.752890E+12	1467.000000	5.921638E+12
67.200000	1436.000000	68.533000	2.471090E-10	5.811201E+12	1441.500000	5.822262E+12
67.400000	1414.000000	68.530000	2.472724E-10	5.718390E+12	1431.000000	5.777538E+12
67.600000	1462.000000	68.530000	2.470415E-10	5.918034E+12	1415.000000	5.717034E+12
67.800000	1420.000000	68.528000	2.469775E-10	5.749512E+12	1421.000000	5.739180E+12
68.000000	1412.000000	68.528000	2.470166E-10	5.716215E+12	1398.500000	5.650918E+12
68.200000	1409.000000	68.528000	2.469882E-10	5.704726E+12	1414.500000	5.713086E+12
68.400000	1413.000000	68.526000	2.469207E-10	5.722485E+12	1415.500000	5.719450E+12
68.600000	1393.000000	68.526000	2.470735E-10	5.637998E+12	1386.000000	5.596369E+12
68.800000	1447.000000	68.523000	2.470095E-10	5.858074E+12	1442.500000	5.825484E+12
69.000000	1377.000000	68.523000	2.469314E-10	5.576448E+12	1393.500000	5.632057E+12
69.200000	1428.000000	68.520000	2.470948E-10	5.779158E+12	1376.000000	5.559614E+12
69.400000	1376.000000	68.520000	2.470131E-10	5.570555E+12	1403.000000	5.666888E+12
69.600000	1344.000000	68.516000	2.469207E-10	5.443043E+12	1372.000000	5.543084E+12
69.800000	1400.000000	68.516000	2.468781E-10	5.670815E+12	1357.500000	5.488243E+12
70.000000	1443.000000	68.513000	2.468781E-10	5.844990E+12	1415.000000	5.717737E+12
70.200000	1294.000000	68.513000	2.470806E-10	5.237157E+12	1360.000000	5.494559E+12
70.400000	1404.000000	68.513000	2.470202E-10	5.683746E+12	1400.000000	5.660581E+12
70.600000	1392.000000	68.509000	2.468745E-10	5.638492E+12	1385.000000	5.600013E+12
70.800000	1321.000000	68.509000	2.468283E-10	5.351898E+12	1368.000000	5.532119E+12
71.000000	1466.000000	68.505000	2.475602E-10	5.921792E+12	1402.000000	5.661100E+12
