
CLAM2 Development Software Ver.05:   CLAM2 Development by PES using Synchrotron Light: EDC
Wednesday, September 12, 2012
Messured: 1:09:32 PM - 1:17:32 PM


Parameter Setting
Fix Photon Energy: 39.000000 eV
81.9 eV (UPS): CAE=10
Kinetic Energy Scan:   34.0000 - 37.0000   eV 
 Kinetic Energy Step:  0.0200   eV 
 600 lines/mm 
 Ch4-Speed:  High Speed Mode 
 Sampling: 1
Number of scan : 3*

Energy (eV)	CPS	Ie (mA)	Ip (A)	CPS/Ip	Avg CPS	Avg CPS/Ip	


Scan : 	1

34.000000	489.000000	84.489000	8.608581E-11	5.680379E+12	489.000000	5.680379E+12
34.020000	497.000000	84.485000	8.597567E-11	5.780705E+12	497.000000	5.780705E+12
34.040000	583.000000	84.485000	8.600409E-11	6.778747E+12	583.000000	6.778747E+12
34.060000	544.000000	84.480000	8.616752E-11	6.313284E+12	544.000000	6.313284E+12
34.080000	528.000000	84.480000	8.623502E-11	6.122803E+12	528.000000	6.122803E+12
34.100000	485.000000	84.475000	8.603607E-11	5.637171E+12	485.000000	5.637171E+12
34.120000	492.000000	84.475000	8.632739E-11	5.699234E+12	492.000000	5.699234E+12
34.140000	528.000000	84.471000	8.637713E-11	6.112729E+12	528.000000	6.112729E+12
34.160000	503.000000	84.471000	8.617818E-11	5.836744E+12	503.000000	5.836744E+12
34.180000	473.000000	84.471000	8.644463E-11	5.471711E+12	473.000000	5.471711E+12
34.200000	500.000000	84.466000	8.640910E-11	5.786428E+12	500.000000	5.786428E+12
34.220000	447.000000	84.466000	8.631318E-11	5.178815E+12	447.000000	5.178815E+12
34.240000	504.000000	84.461000	8.648726E-11	5.827448E+12	504.000000	5.827448E+12
34.260000	483.000000	84.461000	8.664003E-11	5.574790E+12	483.000000	5.574790E+12
34.280000	457.000000	84.457000	8.642687E-11	5.287707E+12	457.000000	5.287707E+12
34.300000	511.000000	84.457000	8.658674E-11	5.901596E+12	511.000000	5.901596E+12
34.320000	458.000000	84.452000	8.599343E-11	5.325988E+12	458.000000	5.325988E+12
34.340000	477.000000	84.452000	8.623147E-11	5.531623E+12	477.000000	5.531623E+12
34.360000	477.000000	84.448000	8.661516E-11	5.507119E+12	477.000000	5.507119E+12
34.380000	412.000000	84.448000	8.636292E-11	4.770566E+12	412.000000	4.770566E+12
34.400000	448.000000	84.448000	8.645529E-11	5.181869E+12	448.000000	5.181869E+12
34.420000	478.000000	84.443000	8.641976E-11	5.531142E+12	478.000000	5.531142E+12
34.440000	458.000000	84.443000	8.619949E-11	5.313256E+12	458.000000	5.313256E+12
34.460000	474.000000	84.439000	8.634871E-11	5.489370E+12	474.000000	5.489370E+12
34.480000	468.000000	84.439000	8.616752E-11	5.431281E+12	468.000000	5.431281E+12
34.500000	414.000000	84.433000	8.627410E-11	4.798659E+12	414.000000	4.798659E+12
34.520000	483.000000	84.433000	8.634515E-11	5.593829E+12	483.000000	5.593829E+12
34.540000	474.000000	84.426000	8.622791E-11	5.497060E+12	474.000000	5.497060E+12
34.560000	451.000000	84.426000	8.629186E-11	5.226449E+12	451.000000	5.226449E+12
34.580000	431.000000	84.426000	8.622791E-11	4.998382E+12	431.000000	4.998382E+12
34.600000	465.000000	84.416000	8.610002E-11	5.400696E+12	465.000000	5.400696E+12
34.620000	480.000000	84.416000	8.621015E-11	5.567790E+12	480.000000	5.567790E+12
34.640000	463.000000	84.408000	8.610002E-11	5.377467E+12	463.000000	5.377467E+12
34.660000	467.000000	84.408000	8.602896E-11	5.428405E+12	467.000000	5.428405E+12
34.680000	437.000000	84.398000	8.616396E-11	5.071726E+12	437.000000	5.071726E+12
34.700000	465.000000	84.398000	8.616396E-11	5.396688E+12	465.000000	5.396688E+12
34.720000	403.000000	84.384000	8.616396E-11	4.677130E+12	403.000000	4.677130E+12
34.740000	447.000000	84.384000	8.615331E-11	5.188425E+12	447.000000	5.188425E+12
34.760000	434.000000	84.375000	8.605738E-11	5.043147E+12	434.000000	5.043147E+12
34.780000	416.000000	84.375000	8.605738E-11	4.833984E+12	416.000000	4.833984E+12
34.800000	449.000000	84.375000	8.613554E-11	5.212715E+12	449.000000	5.212715E+12
34.820000	470.000000	84.364000	8.612133E-11	5.457417E+12	470.000000	5.457417E+12
34.840000	440.000000	84.364000	8.612489E-11	5.108860E+12	440.000000	5.108860E+12
34.860000	422.000000	84.357000	8.617818E-11	4.896831E+12	422.000000	4.896831E+12
34.880000	399.000000	84.357000	8.620304E-11	4.628607E+12	399.000000	4.628607E+12
34.900000	462.000000	84.354000	8.616396E-11	5.361871E+12	462.000000	5.361871E+12
34.920000	415.000000	84.354000	8.613199E-11	4.818187E+12	415.000000	4.818187E+12
34.940000	414.000000	84.352000	8.616041E-11	4.804991E+12	414.000000	4.804991E+12
34.960000	435.000000	84.352000	8.623502E-11	5.044354E+12	435.000000	5.044354E+12
34.980000	391.000000	84.350000	8.601830E-11	4.545544E+12	391.000000	4.545544E+12
35.000000	445.000000	84.350000	8.627765E-11	5.157767E+12	445.000000	5.157767E+12
35.020000	411.000000	84.350000	8.607159E-11	4.775095E+12	411.000000	4.775095E+12
35.040000	440.000000	84.350000	8.600765E-11	5.115824E+12	440.000000	5.115824E+12
35.060000	404.000000	84.347000	8.602186E-11	4.696481E+12	404.000000	4.696481E+12
35.080000	441.000000	84.347000	8.593304E-11	5.131903E+12	441.000000	5.131903E+12
35.100000	443.000000	84.343000	8.592593E-11	5.155603E+12	443.000000	5.155603E+12
35.120000	423.000000	84.343000	8.572343E-11	4.934474E+12	423.000000	4.934474E+12
35.140000	456.000000	84.340000	8.565237E-11	5.323846E+12	456.000000	5.323846E+12
35.160000	404.000000	84.340000	8.580159E-11	4.708537E+12	404.000000	4.708537E+12
35.180000	409.000000	84.336000	8.571632E-11	4.771553E+12	409.000000	4.771553E+12
35.200000	366.000000	84.336000	8.592949E-11	4.259306E+12	366.000000	4.259306E+12
35.220000	411.000000	84.332000	8.558132E-11	4.802450E+12	411.000000	4.802450E+12
35.240000	412.000000	84.332000	8.589396E-11	4.796612E+12	412.000000	4.796612E+12
35.260000	452.000000	84.332000	8.576606E-11	5.270150E+12	452.000000	5.270150E+12
35.280000	428.000000	84.328000	8.560619E-11	4.999638E+12	428.000000	4.999638E+12
35.300000	365.000000	84.328000	8.570211E-11	4.258938E+12	365.000000	4.258938E+12
35.320000	451.000000	84.323000	8.564527E-11	5.265907E+12	451.000000	5.265907E+12
35.340000	400.000000	84.323000	8.565593E-11	4.669846E+12	400.000000	4.669846E+12
35.360000	407.000000	84.318000	8.561685E-11	4.753737E+12	407.000000	4.753737E+12
35.380000	424.000000	84.318000	8.569856E-11	4.947574E+12	424.000000	4.947574E+12
35.400000	357.000000	84.313000	8.553158E-11	4.173897E+12	357.000000	4.173897E+12
35.420000	369.000000	84.313000	8.572343E-11	4.304541E+12	369.000000	4.304541E+12
35.440000	352.000000	84.313000	8.565948E-11	4.109294E+12	352.000000	4.109294E+12
35.460000	331.000000	84.308000	8.570566E-11	3.862055E+12	331.000000	3.862055E+12
35.480000	334.000000	84.308000	8.588330E-11	3.888998E+12	334.000000	3.888998E+12
35.500000	319.000000	84.301000	8.578382E-11	3.718650E+12	319.000000	3.718650E+12
35.520000	286.000000	84.301000	8.590106E-11	3.329412E+12	286.000000	3.329412E+12
35.540000	267.000000	84.296000	8.579093E-11	3.112217E+12	267.000000	3.112217E+12
35.560000	282.000000	84.296000	8.576251E-11	3.288150E+12	282.000000	3.288150E+12
35.580000	234.000000	84.292000	8.555645E-11	2.735036E+12	234.000000	2.735036E+12
35.600000	202.000000	84.292000	8.567724E-11	2.357686E+12	202.000000	2.357686E+12
35.620000	203.000000	84.289000	8.563816E-11	2.370439E+12	203.000000	2.370439E+12
35.640000	183.000000	84.289000	8.562751E-11	2.137164E+12	183.000000	2.137164E+12
35.660000	185.000000	84.287000	8.571988E-11	2.158192E+12	185.000000	2.158192E+12
35.680000	178.000000	84.287000	8.576251E-11	2.075499E+12	178.000000	2.075499E+12
35.700000	157.000000	84.287000	8.558132E-11	1.834512E+12	157.000000	1.834512E+12
35.720000	135.000000	84.283000	8.566658E-11	1.575877E+12	135.000000	1.575877E+12
35.740000	163.000000	84.283000	8.557421E-11	1.904779E+12	163.000000	1.904779E+12
35.760000	149.000000	84.279000	8.580159E-11	1.736565E+12	149.000000	1.736565E+12
35.780000	130.000000	84.279000	8.579093E-11	1.515312E+12	130.000000	1.515312E+12
35.800000	107.000000	84.276000	8.569145E-11	1.248666E+12	107.000000	1.248666E+12
35.820000	110.000000	84.276000	8.553158E-11	1.286075E+12	110.000000	1.286075E+12
35.840000	120.000000	84.272000	8.556000E-11	1.402525E+12	120.000000	1.402525E+12
35.860000	140.000000	84.272000	8.555645E-11	1.636347E+12	140.000000	1.636347E+12
35.880000	114.000000	84.272000	8.562751E-11	1.331348E+12	114.000000	1.331348E+12
35.900000	113.000000	84.269000	8.567724E-11	1.318903E+12	113.000000	1.318903E+12
35.920000	132.000000	84.269000	8.556000E-11	1.542777E+12	132.000000	1.542777E+12
35.940000	113.000000	84.266000	8.583356E-11	1.316501E+12	113.000000	1.316501E+12
35.960000	144.000000	84.266000	8.570922E-11	1.680099E+12	144.000000	1.680099E+12
35.980000	137.000000	84.262000	8.561329E-11	1.600219E+12	137.000000	1.600219E+12
36.000000	109.000000	84.262000	8.558843E-11	1.273537E+12	109.000000	1.273537E+12
36.020000	124.000000	84.259000	8.558843E-11	1.448794E+12	124.000000	1.448794E+12
36.040000	128.000000	84.259000	8.557066E-11	1.495840E+12	128.000000	1.495840E+12
36.060000	123.000000	84.254000	8.562040E-11	1.436574E+12	123.000000	1.436574E+12
36.080000	131.000000	84.254000	8.546053E-11	1.532871E+12	131.000000	1.532871E+12
36.100000	124.000000	84.254000	8.564527E-11	1.447832E+12	124.000000	1.447832E+12
36.120000	115.000000	84.249000	8.556000E-11	1.344086E+12	115.000000	1.344086E+12
36.140000	135.000000	84.249000	8.557066E-11	1.577644E+12	135.000000	1.577644E+12
36.160000	118.000000	84.245000	8.556711E-11	1.379035E+12	118.000000	1.379035E+12
36.180000	129.000000	84.245000	8.552092E-11	1.508403E+12	129.000000	1.508403E+12
36.200000	121.000000	84.241000	8.555290E-11	1.414330E+12	121.000000	1.414330E+12
36.220000	125.000000	84.241000	8.541079E-11	1.463515E+12	125.000000	1.463515E+12
36.240000	126.000000	84.237000	8.535039E-11	1.476267E+12	126.000000	1.476267E+12
36.260000	103.000000	84.237000	8.552803E-11	1.204284E+12	103.000000	1.204284E+12
36.280000	139.000000	84.233000	8.551737E-11	1.625401E+12	139.000000	1.625401E+12
36.300000	118.000000	84.233000	8.558487E-11	1.378748E+12	118.000000	1.378748E+12
36.320000	122.000000	84.233000	8.554935E-11	1.426077E+12	122.000000	1.426077E+12
36.340000	136.000000	84.228000	8.549961E-11	1.590651E+12	136.000000	1.590651E+12
36.360000	116.000000	84.228000	8.522605E-11	1.361086E+12	116.000000	1.361086E+12
36.380000	125.000000	84.223000	8.526158E-11	1.466077E+12	125.000000	1.466077E+12
36.400000	106.000000	84.223000	8.544632E-11	1.240545E+12	106.000000	1.240545E+12
36.420000	113.000000	84.219000	8.516921E-11	1.326771E+12	113.000000	1.326771E+12
36.440000	129.000000	84.219000	8.529710E-11	1.512361E+12	129.000000	1.512361E+12
36.460000	130.000000	84.215000	8.517986E-11	1.526182E+12	130.000000	1.526182E+12
36.480000	109.000000	84.215000	8.522605E-11	1.278952E+12	109.000000	1.278952E+12
36.500000	133.000000	84.211000	8.518342E-11	1.561337E+12	133.000000	1.561337E+12
36.520000	128.000000	84.211000	8.501999E-11	1.505528E+12	128.000000	1.505528E+12
36.540000	131.000000	84.211000	8.498091E-11	1.541523E+12	131.000000	1.541523E+12
36.560000	111.000000	84.207000	8.488854E-11	1.307597E+12	111.000000	1.307597E+12
36.580000	130.000000	84.207000	8.538592E-11	1.522499E+12	130.000000	1.522499E+12
36.600000	112.000000	84.202000	8.510526E-11	1.316017E+12	112.000000	1.316017E+12
36.620000	114.000000	84.202000	8.504131E-11	1.340525E+12	114.000000	1.340525E+12
36.640000	121.000000	84.197000	8.496670E-11	1.424087E+12	121.000000	1.424087E+12
36.660000	119.000000	84.197000	8.500223E-11	1.399963E+12	119.000000	1.399963E+12
36.680000	109.000000	84.193000	8.502710E-11	1.281944E+12	109.000000	1.281944E+12
36.700000	121.000000	84.193000	8.496670E-11	1.424087E+12	121.000000	1.424087E+12
36.720000	126.000000	84.193000	8.505197E-11	1.481447E+12	126.000000	1.481447E+12
36.740000	111.000000	84.188000	8.500223E-11	1.305848E+12	111.000000	1.305848E+12
36.760000	122.000000	84.188000	8.498802E-11	1.435496E+12	122.000000	1.435496E+12
36.780000	128.000000	84.184000	8.498446E-11	1.506158E+12	128.000000	1.506158E+12
36.800000	116.000000	84.184000	8.483525E-11	1.367356E+12	116.000000	1.367356E+12
36.820000	121.000000	84.180000	8.495249E-11	1.424326E+12	121.000000	1.424326E+12
36.840000	109.000000	84.180000	8.495604E-11	1.283016E+12	109.000000	1.283016E+12
36.860000	132.000000	84.175000	8.503065E-11	1.552381E+12	132.000000	1.552381E+12
36.880000	123.000000	84.175000	8.482814E-11	1.449991E+12	123.000000	1.449991E+12
36.900000	139.000000	84.171000	8.514789E-11	1.632454E+12	139.000000	1.632454E+12
36.920000	121.000000	84.171000	8.489209E-11	1.425339E+12	121.000000	1.425339E+12
36.940000	126.000000	84.171000	8.533618E-11	1.476513E+12	126.000000	1.476513E+12
36.960000	131.000000	84.166000	8.503065E-11	1.540621E+12	131.000000	1.540621E+12
36.980000	98.000000	84.166000	8.538592E-11	1.147730E+12	98.000000	1.147730E+12
37.000000	105.000000	84.162000	8.532197E-11	1.230633E+12	105.000000	1.230633E+12

Scan : 	2

34.000000	517.000000	84.152000	8.493473E-11	6.087027E+12	503.000000	5.883703E+12
34.020000	559.000000	84.147000	8.497736E-11	6.578223E+12	528.000000	6.179464E+12
34.040000	531.000000	84.147000	8.494183E-11	6.251337E+12	557.000000	6.515042E+12
34.060000	518.000000	84.143000	8.508039E-11	6.088359E+12	531.000000	6.200822E+12
34.080000	514.000000	84.143000	8.482459E-11	6.059564E+12	521.000000	6.091183E+12
34.100000	519.000000	84.139000	8.484946E-11	6.116715E+12	502.000000	5.876943E+12
34.120000	483.000000	84.139000	8.494183E-11	5.686244E+12	487.500000	5.692739E+12
34.140000	467.000000	84.134000	8.458656E-11	5.520972E+12	497.500000	5.816850E+12
34.160000	502.000000	84.134000	8.477130E-11	5.921816E+12	502.500000	5.879280E+12
34.180000	464.000000	84.130000	8.465051E-11	5.481361E+12	468.500000	5.476536E+12
34.200000	465.000000	84.130000	8.478906E-11	5.484198E+12	482.500000	5.635313E+12
34.220000	495.000000	84.130000	8.485657E-11	5.833373E+12	471.000000	5.506094E+12
34.240000	486.000000	84.126000	8.473222E-11	5.735717E+12	495.000000	5.781582E+12
34.260000	454.000000	84.126000	8.466117E-11	5.362553E+12	468.500000	5.468672E+12
34.280000	473.000000	84.122000	8.479972E-11	5.577849E+12	465.000000	5.432778E+12
34.300000	464.000000	84.122000	8.482459E-11	5.470112E+12	487.500000	5.685854E+12
34.320000	469.000000	84.117000	8.469669E-11	5.537406E+12	463.500000	5.431697E+12
34.340000	463.000000	84.117000	8.480328E-11	5.459694E+12	470.000000	5.495659E+12
34.360000	478.000000	84.112000	8.474288E-11	5.640592E+12	477.500000	5.573855E+12
34.380000	500.000000	84.112000	8.461143E-11	5.909367E+12	456.000000	5.339966E+12
34.400000	475.000000	84.107000	8.472867E-11	5.606131E+12	461.500000	5.394000E+12
34.420000	435.000000	84.107000	8.463985E-11	5.139423E+12	456.500000	5.335283E+12
34.440000	440.000000	84.107000	8.474288E-11	5.192177E+12	449.000000	5.252717E+12
34.460000	456.000000	84.102000	8.405721E-11	5.424877E+12	465.000000	5.457123E+12
34.480000	458.000000	84.102000	8.461498E-11	5.412753E+12	463.000000	5.422017E+12
34.500000	451.000000	84.098000	8.456524E-11	5.333161E+12	432.500000	5.065910E+12
34.520000	465.000000	84.098000	8.477841E-11	5.484887E+12	474.000000	5.539358E+12
34.540000	391.000000	84.094000	8.450129E-11	4.627148E+12	432.500000	5.062104E+12
34.560000	457.000000	84.094000	8.459011E-11	5.402523E+12	454.000000	5.314486E+12
34.580000	425.000000	84.090000	8.461498E-11	5.022751E+12	428.000000	5.010566E+12
34.600000	456.000000	84.090000	8.453327E-11	5.394326E+12	460.500000	5.397511E+12
34.620000	441.000000	84.090000	8.461143E-11	5.212062E+12	460.500000	5.389926E+12
34.640000	449.000000	84.086000	8.439827E-11	5.320014E+12	456.000000	5.348741E+12
34.660000	474.000000	84.086000	8.452616E-11	5.607731E+12	470.500000	5.518068E+12
34.680000	451.000000	84.086000	8.456524E-11	5.333161E+12	444.000000	5.202443E+12
34.700000	449.000000	84.081000	8.468959E-11	5.301714E+12	457.000000	5.349201E+12
34.720000	433.000000	84.081000	8.453327E-11	5.122244E+12	418.000000	4.899687E+12
34.740000	398.000000	84.077000	8.461143E-11	4.703856E+12	422.500000	4.946141E+12
34.760000	432.000000	84.077000	8.473577E-11	5.098201E+12	433.000000	5.070674E+12
34.780000	445.000000	84.073000	8.472867E-11	5.252059E+12	430.500000	5.043022E+12
34.800000	422.000000	84.073000	8.467893E-11	4.983530E+12	435.500000	5.098122E+12
34.820000	421.000000	84.068000	8.452261E-11	4.980916E+12	445.500000	5.219166E+12
34.840000	417.000000	84.068000	8.463275E-11	4.927171E+12	428.500000	5.018015E+12
34.860000	390.000000	84.063000	8.463985E-11	4.607759E+12	406.000000	4.752295E+12
34.880000	430.000000	84.063000	8.433787E-11	5.098540E+12	414.500000	4.863574E+12
34.900000	436.000000	84.063000	8.439116E-11	5.166418E+12	449.000000	5.264144E+12
34.920000	402.000000	84.058000	8.427037E-11	4.770360E+12	408.500000	4.794273E+12
34.940000	417.000000	84.058000	8.451195E-11	4.934213E+12	415.500000	4.869602E+12
34.960000	401.000000	84.053000	8.455814E-11	4.742299E+12	418.000000	4.893327E+12
34.980000	405.000000	84.053000	8.435563E-11	4.801102E+12	398.000000	4.673323E+12
35.000000	425.000000	84.049000	8.414958E-11	5.050530E+12	435.000000	5.104149E+12
35.020000	393.000000	84.049000	8.448708E-11	4.651599E+12	402.000000	4.713347E+12
35.040000	430.000000	84.044000	8.443379E-11	5.092748E+12	435.000000	5.104286E+12
35.060000	419.000000	84.044000	8.445866E-11	4.961007E+12	411.500000	4.828744E+12
35.080000	386.000000	84.040000	8.451906E-11	4.567017E+12	413.500000	4.849460E+12
35.100000	411.000000	84.040000	8.435563E-11	4.872230E+12	427.000000	5.013916E+12
35.120000	405.000000	84.040000	8.432721E-11	4.802720E+12	414.000000	4.868597E+12
35.140000	405.000000	84.035000	8.441958E-11	4.797465E+12	430.500000	5.060655E+12
35.160000	444.000000	84.035000	8.442314E-11	5.259222E+12	424.000000	4.983880E+12
35.180000	429.000000	84.031000	8.379786E-11	5.119462E+12	419.000000	4.945508E+12
35.200000	384.000000	84.031000	8.427747E-11	4.556378E+12	375.000000	4.407842E+12
35.220000	427.000000	84.026000	8.441248E-11	5.058494E+12	419.000000	4.930472E+12
35.240000	421.000000	84.026000	8.428813E-11	4.994772E+12	416.500000	4.895692E+12
35.260000	379.000000	84.022000	8.446221E-11	4.487214E+12	415.500000	4.878682E+12
35.280000	397.000000	84.022000	8.439471E-11	4.704086E+12	412.500000	4.851862E+12
35.300000	377.000000	84.022000	8.410694E-11	4.482389E+12	371.000000	4.370664E+12
35.320000	401.000000	84.018000	8.432011E-11	4.755686E+12	426.000000	5.010797E+12
35.340000	380.000000	84.018000	8.427037E-11	4.509295E+12	390.000000	4.589571E+12
35.360000	397.000000	84.013000	8.430945E-11	4.708843E+12	402.000000	4.731290E+12
35.380000	360.000000	84.013000	8.443024E-11	4.263875E+12	392.000000	4.605725E+12
35.400000	371.000000	84.009000	8.427392E-11	4.402311E+12	364.000000	4.288104E+12
35.420000	394.000000	84.009000	8.434142E-11	4.671489E+12	381.500000	4.488015E+12
35.440000	376.000000	84.004000	8.439116E-11	4.455443E+12	364.000000	4.282369E+12
35.460000	347.000000	84.004000	8.430590E-11	4.115963E+12	339.000000	3.989009E+12
35.480000	325.000000	84.000000	8.435919E-11	3.852574E+12	329.500000	3.870786E+12
35.500000	311.000000	84.000000	8.416734E-11	3.695020E+12	315.000000	3.706835E+12
35.520000	292.000000	84.000000	8.430945E-11	3.463431E+12	289.000000	3.396422E+12
35.540000	251.000000	83.996000	8.444800E-11	2.972243E+12	259.000000	3.042230E+12
35.560000	259.000000	83.996000	8.425971E-11	3.073830E+12	270.500000	3.180990E+12
35.580000	249.000000	83.992000	8.433787E-11	2.952410E+12	241.500000	2.843723E+12
35.600000	222.000000	83.992000	8.435919E-11	2.631604E+12	212.000000	2.494645E+12
35.620000	198.000000	83.987000	8.441248E-11	2.345625E+12	200.500000	2.358032E+12
35.640000	188.000000	83.987000	8.445156E-11	2.226128E+12	185.500000	2.181646E+12
35.660000	195.000000	83.983000	8.436984E-11	2.311252E+12	190.000000	2.234722E+12
35.680000	148.000000	83.983000	8.449419E-11	1.751600E+12	163.000000	1.913549E+12
35.700000	151.000000	83.983000	8.454037E-11	1.786129E+12	154.000000	1.810321E+12
